Title=Alexa650-Kinetics
Comment=
Signature=ISS_Experiment_Ver_1_0
Timestamp=Thu May 19 13:46:55 2022

AcquisitionType=Photon Counting
AcquisitionFormat=L
AcquisitionSide=Right

Measurable=Intensity
MaxIterations=3

RightEmissionWavelengthBandwidth=8
ExcitationWavelengthBandwidth=8
Visualization=PlotType:2D,X:Time,Y:Intensity


Time=type:numeric,unit:s,from:0.0,to:500.0,step:1.0
ExcitationWavelength=type:numeric,unit:nm,fixed:650.0
EmissionWavelength=type:numeric,unit:nm,fixed:668.0

Space=Time
Columns=Time,Intensity,IntensityStdError
[Data]
   0.00	      4400.33333        73.49
   1.03	      4093.66667       58.859
   2.01	            4000       70.553
   3.03	      3868.66667       91.799
   4.03	      3708.33333       243.86
   5.03	            4000       193.68
   6.03	            3988       183.89
   7.03	      3893.33333       92.762
   8.03	      3893.66667       34.395
   9.01	      3854.33333       47.939
  10.03	      3922.33333       210.75
  11.03	            3935       68.737
  12.03	      3960.66667          173
  13.03	            3627       105.71
  14.03	            3547       61.107
  15.03	      3666.66667       139.14
  16.01	            3560       80.776
  17.03	      3760.33333       191.83
  18.03	      3668.66667       165.25
  19.03	      3811.66667         93.5
  20.03	      3385.66667       92.089
  21.03	      3707.33333       200.33
  22.03	            3653       130.85
  23.01	      3639.33333       96.202
  24.03	            3759       92.051
  25.03	      3905.66667        161.2
  26.03	      3653.66667        35.36
  27.03	      3748.66667       159.85
  28.03	      3637.66667        126.7
  29.03	      3639.33333       53.167
  30.01	            3826       439.27
  31.03	      3694.33333       162.21
  32.03	            3504       164.93
  33.03	      3240.33333       141.23
  34.03	      3667.66667          239
  35.03	            3533        127.8
  36.03	      3600.66667       223.42
  37.03	            3546       188.89
  38.01	            3454       47.751
  39.03	      3573.66667        92.36
  40.03	      3519.33333        13.17
  41.03	            3347       160.96
  42.03	            3376       138.33
  43.03	      3481.33333       149.04
  44.03	      3266.66667       166.69
  45.01	      3279.33333       207.89
  46.03	      3559.66667       153.91
  47.03	      3466.33333       166.21
  48.03	      3279.66667       138.02
  49.03	      3159.66667       114.64
  50.03	      3120.66667       132.51
  51.03	            3479       73.884
  52.01	      3293.33333       158.98
  53.03	            3307       250.44
  54.03	      3052.33333       273.07
  55.03	      3065.33333       162.52
  56.03	      3027.66667       100.54
  57.03	            3268       183.42
  58.03	      2988.66667        163.1
  59.01	            3147       138.56
  60.03	            2799       139.78
  61.03	            3359        47.52
  62.03	      3133.66667          135
  63.03	      2984.33333       138.56
  64.03	      3107.33333       226.55
  65.03	      2960.66667       83.032
  66.01	            3026        61.55
  67.03	            3094       256.96
  68.03	            3133       58.199
  69.03	      2908.33333        140.1
  70.03	      2920.33333       138.33
  71.03	      2972.66667       34.775
  72.03	      2868.66667       220.76
  73.03	      3095.66667       130.43
  74.01	            2640        154.2
  75.03	            2722       224.51
  76.03	      2812.66667       34.034
  77.03	      2811.66667       139.41
  78.03	      2785.33333        21.98
  79.03	      3067.33333       58.811
  80.03	      2840.33333       213.17
  81.01	            2975       118.27
  82.03	      2984.66667       139.91
  83.03	      2853.66667       253.48
  84.03	      2866.66667       61.879
  85.03	            2839       87.288
  86.03	      2836.66667       219.36
  87.03	      2706.33333       40.667
  88.01	            2813       154.01
  89.03	      2694.33333       52.834
  90.03	      2921.33333       162.15
  91.03	      2640.33333       108.26
  92.03	            2760       149.03
  93.03	            2679       109.69
  94.03	      2666.66667       180.37
  95.01	      2986.33333        100.6
  96.03	      2560.33333       135.31
  97.03	      2492.66667       170.67
  98.03	      2786.33333       130.81
  99.03	      2999.33333       300.76
 100.03	            2732       147.79
 101.03	      2172.66667       135.63
 102.01	      2598.33333       48.602
 103.03	      2465.66667       166.86
 104.03	            2520        86.52
 105.03	      2720.66667       118.42
 106.03	            2665       159.17
 107.03	            2455       34.647
 108.03	      2693.66667       178.09
 109.03	      2586.66667       105.08
 110.01	      2305.33333        163.1
 111.03	      2627.66667       61.101
 112.03	            2483       25.168
 113.03	            2533        169.9
 114.03	            2533        117.7
 115.03	            2533       164.12
 116.03	            2320       73.249
 117.01	      2344.33333       151.35
 118.03	      2386.66667       184.39
 119.03	      2331.33333        49.74
 120.03	      2360.33333       163.06
 121.03	      2517.33333        88.02
 122.03	      2573.66667       94.448
 123.03	            2305       121.67
 124.01	      2386.66667        161.2
 125.03	      2440.33333       109.06
 126.03	      2323.33333       74.118
 127.03	      2306.66667       38.501
 128.03	      2319.66667       37.233
 129.03	      2451.33333       193.96
 130.03	      2252.33333       233.39
 131.01	      2387.33333       82.467
 132.03	            2306       23.398
 133.03	            2386       22.244
 134.03	      2359.66667       80.314
 135.03	            2027       129.98
 136.03	            2096       47.196
 137.03	      2412.66667       223.42
 138.01	      2200.33333       293.67
 139.03	      2305.66667       208.71
 140.03	            2117       167.11
 141.03	      2079.66667       127.47
 142.03	      2267.33333       115.47
 143.03	      2227.66667       183.53
 144.03	      2066.66667          120
 145.03	            2014       94.178
 146.01	      1998.33333       88.093
 147.03	            2175       95.917
 148.03	      2079.33333       94.675
 149.03	      2345.66667        118.5
 150.03	      2119.33333        231.6
 151.03	      2171.66667       26.514
 152.03	      2160.66667       58.731
 153.01	      1973.33333       51.841
 154.03	      2146.66667       129.15
 155.03	      2054.66667       72.473
 156.03	      2052.33333       178.42
 157.03	      2214.66667       26.514
 158.03	      2132.33333       11.837
 159.03	      2014.66667        12.53
 160.01	      2239.66667           94
 161.03	      1905.33333       38.834
 162.03	            1653       58.199
 163.03	      1984.66667       322.86
 164.03	            1987       258.98
 165.03	      1852.66667        152.4
 166.03	            2081       177.33
 167.01	      1985.33333       183.89
 168.03	            2054          136
 169.03	            1962       216.27
 170.03	      1878.66667       80.227
 171.03	      2213.33333       88.667
 172.03	      1960.33333       81.327
 173.03	            2082       52.897
 174.01	            2000       218.83
 175.03	            1919       106.17
 176.03	            1866       67.553
 177.03	      1879.33333       113.73
 178.03	            1867       81.171
 179.03	            2054       49.974
 180.03	            1720       130.27
 181.12	            1961       207.49
 182.03	      1748.33333       88.883
 183.03	            1480       93.002
 184.03	            1814       61.879
 185.03	      1878.66667       48.216
 186.03	      1584.66667        114.9
 187.03	      1852.66667       83.351
 188.03	            1773       108.48
 189.01	            1467       34.598
 190.03	      1719.33333       293.17
 191.03	            1588       240.19
 192.03	            1654        159.5
 193.03	            1506          107
 194.03	      1519.33333       80.011
 195.03	            1600       34.395
 196.01	      1547.33333       49.482
 197.03	      1824.33333       245.56
 198.03	            1307       34.775
 199.03	      1506.33333        92.55
 200.03	            1573       69.289
 201.03	            1466       26.514
 202.03	            1707       242.54
 203.01	            1397       226.71
 204.03	            1573       69.289
 205.03	      1453.66667       105.58
 206.03	            1295       167.65
 207.03	            1706       57.239
 208.03	      1493.33333          219
 209.03	            1507       71.435
 210.01	            1561       58.506
 211.03	      1625.66667       436.26
 212.03	      1385.33333       218.83
 213.03	            1493       190.34
 214.03	      1549.66667        126.6
 215.03	            1442       113.71
 216.03	            1467       85.565
 217.01	      1308.33333       34.532
 218.03	      1331.66667       185.33
 219.03	            1479       60.008
 220.03	      1546.66667       71.373
 221.03	      1573.66667       61.553
 222.03	      1334.66667       143.99
 223.03	      1412.66667       78.335
 224.03	      1437.66667       107.06
 225.01	      1571.66667       144.88
 226.03	            1587       137.11
 227.03	            1426       117.46
 228.03	      1425.66667       235.77
 229.03	      1321.33333       59.229
 230.03	            1333       69.888
 231.03	            1348       131.39
 232.01	      1268.66667       57.406
 233.03	      1400.33333        154.1
 234.03	      1120.33333       66.839
 235.03	      1189.33333       35.277
 236.03	      1332.33333       61.553
 237.03	      1158.66667       82.434
 238.03	      1480.66667       201.77
 239.01	      1280.66667       130.76
 240.03	            1454       151.36
 241.03	      1360.33333       106.83
 242.03	      1667.33333        156.9
 243.03	      1332.66667       101.59
 244.03	      1186.33333       116.93
 245.03	      1318.66667       35.092
 246.01	      1331.66667       121.12
 247.03	            1399       152.96
 248.03	      1147.33333       163.36
 249.03	            1349       70.117
 250.03	      1400.33333       71.382
 251.03	      1238.33333       48.721
 252.03	      1319.33333       58.199
 253.03	            1333       81.746
 254.01	      1345.33333       108.16
 255.03	      1264.66667       27.835
 256.03	            1466       104.73
 257.03	            1134           40
 258.03	      1093.66667       45.907
 259.03	      1253.66667       129.77
 260.03	            1321       57.813
 261.01	      1332.33333       119.35
 262.03	      1080.33333        149.4
 263.03	      1240.33333        60.04
 264.03	      1066.33333       96.844
 265.03	            1197       149.39
 266.03	            1308       209.63
 267.03	            1146       192.76
 268.01	      1106.66667       66.333
 269.03	            1079       69.176
 270.03	            1321       48.398
 271.03	      1173.33333        129.1
 272.03	      1333.33333        129.1
 273.03	            1132        61.76
 274.03	      1132.66667       92.683
 275.01	            1161       13.051
 276.03	      1121.33333       148.33
 277.03	            1374       69.867
 278.03	            1065       156.75
 279.03	      935.333333       116.34
 280.03	      1079.66667       214.98
 281.03	      1158.33333       92.167
 282.01	      1079.33333       58.199
 283.03	            1106       109.46
 284.03	            1093       121.77
 285.03	            1120       109.46
 286.03	      1212.33333       183.53
 287.03	      1198.33333       47.751
 288.03	      1265.66667        117.2
 289.03	      1145.33333       76.597
 290.01	      1052.33333       100.07
 291.03	      1266.66667       313.94
 292.03	            1306       104.67
 293.03	      998.666667       152.86
 294.03	      1226.33333       12.837
 295.03	             933       23.671
 296.03	      1280.66667        212.9
 297.01	      892.333333       68.705
 298.03	            1108       86.772
 299.03	      1134.66667       128.43
 300.03	      1185.66667       66.834
 301.03	            1132       114.04
 302.03	      1252.33333       22.519
 303.03	      1067.33333       96.011
 304.01	      1092.33333       83.027
 305.03	      1147.33333        34.71
 306.03	            1108         93.5
 307.03	      1078.33333        152.2
 308.03	      987.666667       26.872
 309.03	      1012.33333       46.193
 310.03	      932.666667       61.004
 311.01	      1066.66667       75.105
 312.03	      851.333333       160.17
 313.03	      906.666667       156.85
 314.03	             839       58.158
 315.03	      1026.33333       149.68
 316.03	             959       12.583
 317.03	            1106       187.07
 318.01	      1065.33333       157.07
 319.03	      1065.66667       49.008
 320.03	      896.666667       83.027
 321.03	             827          197
 322.03	      840.333333       146.83
 323.03	      1000.33333       81.077
 324.03	      960.666667       57.319
 325.03	             798        116.2
 326.01	      865.666667       58.425
 327.03	      1012.66667       60.993
 328.03	      956.666667       94.837
 329.03	      906.333333       81.679
 330.03	             759       185.43
 331.03	      1049.66667       188.79
 332.03	      772.666667       122.53
 333.01	      972.333333       141.09
 334.03	      936.333333          101
 335.03	             945          146
 336.03	      730.666667       99.481
 337.03	      1186.66667       92.668
 338.03	      893.333333       116.34
 339.03	             758       67.002
 340.01	             627       97.079
 341.03	      1014.33333       114.89
 342.03	             626       82.529
 343.03	      787.333333       45.994
 344.03	            1001       35.907
 345.03	      758.666667       46.412
 346.03	      961.333333       109.36
 347.01	             865       48.135
 348.03	             853          139
 349.03	      892.666667       23.961
 350.03	      878.666667       104.08
 351.03	             747       116.79
 352.03	             867       95.553
 353.03	             747       233.21
 354.01	             974       201.46
 355.03	             747       135.88
 356.03	      787.333333       82.009
 357.03	             973       180.85
 358.03	      787.666667       47.485
 359.03	      786.666667          119
 360.03	      650.666667       115.18
 361.03	      695.666667       106.33
 362.08	      626.666667       46.934
 363.01	             652       22.517
 364.01	      693.666667       106.84
 365.01	             826       57.501
 366.01	      827.333333       69.619
 367.01	      827.666667       58.655
 368.01	      625.333333       168.03
 369.01	             894       21.703
 370.03	      946.333333       56.863
 371.03	      813.333333        62.52
 372.03	      614.666667       139.76
 373.03	      879.666667       48.216
 374.03	      773.666667       84.068
 375.03	      547.666667       104.83
 376.01	      868.666667       161.91
 377.03	      842.333333       65.834
 378.03	      920.333333       79.926
 379.03	             616       101.13
 380.03	      734.666667          181
 381.03	      879.333333       88.627
 382.03	      587.666667       26.872
 383.01	      639.333333       11.667
 384.03	             535       39.526
 385.03	      615.666667       39.168
 386.03	             574       101.34
 387.03	      734.666667         45.9
 388.03	             587        160.7
 389.03	             574       39.038
 390.01	             655       101.19
 391.03	      505.666667       87.488
 392.03	             815       106.59
 393.03	      561.666667       88.046
 394.03	      680.666667       104.71
 395.03	      519.666667       13.908
 396.03	             695       62.193
 397.03	      347.666667       162.81
 398.01	             653       129.88
 399.03	      748.333333       127.19
 400.03	      748.333333       12.005
 401.03	      627.333333       192.68
 402.03	      787.666667       116.28
 403.03	      534.666667       161.55
 404.03	      574.666667        100.8
 405.01	      692.666667       100.67
 406.03	      681.333333       127.49
 407.03	      574.666667       100.67
 408.03	      799.666667       71.499
 409.03	             734       104.89
 410.03	      721.666667       189.08
 411.03	      627.333333       14.333
 412.01	             787       113.78
 413.03	      827.333333       48.667
 414.03	      707.333333       113.45
 415.03	      708.666667       58.556
 416.03	             494       191.11
 417.03	      786.666667       179.41
 418.03	      562.333333       108.14
 419.01	      533.666667        61.32
 420.03	      586.666667       128.12
 421.03	      535.666667       22.835
 422.03	      506.666667       53.174
 423.03	      561.333333       153.28
 424.03	             601        180.7
 425.03	      574.333333       161.66
 426.01	             588       87.763
 427.03	      508.666667       68.538
 428.03	      625.333333       130.51
 429.03	      507.666667       114.44
 430.03	      561.333333       82.556
 431.03	      704.666667       252.33
 432.03	             600          128
 433.03	      655.333333       100.21
 434.01	      507.666667        70.43
 435.03	      681.333333       110.04
 436.03	             429       70.682
 437.03	      507.333333       35.844
 438.03	      507.333333       82.254
 439.03	      400.333333       208.17
 440.03	      654.666667       128.69
 441.01	      522.333333       48.588
 442.03	      482.333333       92.668
 443.03	      467.333333       118.18
 444.03	      573.666667       231.52
 445.03	             653       150.16
 446.03	             453       101.66
 447.03	             718        34.02
 448.01	             801       34.598
 449.03	             613       40.501
 450.03	      655.333333        70.44
 451.03	      509.666667       117.94
 452.03	      442.666667        112.4
 453.03	      561.666667       167.07
 454.03	      455.333333       23.674
 455.01	      562.666667       25.208
 456.03	      586.666667       163.22
 457.03	      440.666667       11.837
 458.03	      682.666667       117.16
 459.03	             547       70.685
 460.03	      480.333333       35.025
 461.03	      467.333333       93.296
 462.01	      625.333333       27.691
 463.03	             334       120.01
 464.03	             497       22.811
 465.03	      439.666667       81.352
 466.03	      574.333333       46.484
 467.03	      574.666667       160.79
 468.03	             640       113.59
 469.03	             240        92.86
 470.01	      412.333333       140.19
 471.03	      533.666667       78.167
 472.03	      401.666667       186.81
 473.03	             482       126.17
 474.03	      545.666667       116.16
 475.03	             574       46.479
 476.03	      494.666667       59.792
 477.01	      441.666667       34.143
 478.03	      506.666667        115.6
 479.03	      480.333333       71.373
 480.03	      481.333333       49.418
 481.03	      628.333333       34.901
 482.03	      625.666667       26.359
 483.03	      478.666667        221.7
 484.01	             452       22.855
 485.03	             348        106.5
 486.03	      653.333333       39.834
 487.03	      400.333333       48.588
 488.03	      575.666667       128.32
 489.03	      480.666667       117.38
 490.03	      520.666667       119.94
 491.01	      587.333333       26.667
 492.03	      533.333333       116.63
 493.03	      560.666667       94.844
 494.03	      561.666667       97.119
 495.03	      386.333333       113.23
 496.03	             293       129.36
 497.03	      387.333333       48.074
 498.01	      160.666667       53.871
 499.03	             335       166.37
 500.03	             508       80.728
