Title=Alexa650-Kinetics
Comment=
Signature=ISS_Experiment_Ver_1_0
Timestamp=Thu May 19 13:26:55 2022

AcquisitionType=Photon Counting
AcquisitionFormat=L
AcquisitionSide=Right

Measurable=Intensity
MaxIterations=3

RightEmissionWavelengthBandwidth=8
ExcitationWavelengthBandwidth=8
Visualization=PlotType:2D,X:Time,Y:Intensity


Time=type:numeric,unit:s,from:0.0,to:300.0,step:1.0
ExcitationWavelength=type:numeric,unit:nm,fixed:650.0
EmissionWavelength=type:numeric,unit:nm,fixed:668.0

Space=Time
Columns=Time,Intensity,IntensityStdError
[Data]
   0.00	      26000.3333       156.85
   1.01	      26265.6667       108.94
   2.01	      26520.6667       275.81
   3.01	      26372.6667       601.13
   4.03	           26108       14.107
   5.03	      25917.3333       239.17
   6.03	      26575.3333       491.99
   7.03	      26092.6667       266.36
   8.03	      26210.3333       333.87
   9.03	      26600.3333       115.03
  10.01	           26119       580.08
  11.01	      26105.3333       157.92
  12.03	      25626.6667       219.48
  13.03	      26040.6667        249.7
  14.03	      26450.3333       261.59
  15.03	      26239.3333       328.72
  16.03	           26959       422.78
  17.03	      26105.6667       236.93
  18.01	           26786       109.71
  19.03	      26066.6667       329.69
  20.03	      25892.6667       204.81
  21.03	           26759       407.51
  22.03	      26307.3333       528.36
  23.03	           26238       208.51
  24.03	           25638       314.32
  25.01	           25933       566.92
  26.03	           26213        159.5
  27.03	           26519       87.019
  28.01	      26773.3333       128.17
  29.01	      25983.6667       57.981
  30.01	      26319.6667       266.52
  31.01	           25920       254.63
  32.01	      25852.3333       128.43
  33.03	           25959          227
  34.03	      25801.3333       147.83
  35.03	      25573.3333       546.21
  36.03	      26266.3333       370.79
  37.03	           26265       475.14
  38.03	      25827.3333       86.976
  39.01	           26118       127.16
  40.03	           26666          534
  41.03	      25813.3333       240.86
  42.03	      26905.6667       449.95
  43.03	      25894.3333       259.41
  44.03	      25399.6667       199.68
  45.03	           26401       427.57
  46.01	      26304.6667       139.24
  47.01	      26040.6667       301.98
  48.03	      26238.3333       388.69
  49.03	           26054       259.23
  50.03	      26200.3333       546.87
  51.03	      26266.3333       173.84
  52.03	      26347.3333       334.34
  53.03	           26002       297.36
  54.01	           26599       441.46
  55.03	           25825       304.89
  56.03	      26532.6667       555.22
  57.03	      26746.3333       169.02
  58.03	      26131.6667       115.76
  59.03	      26760.3333       347.62
  60.03	           26028       223.03
  61.01	      26091.6667       392.82
  62.03	      26239.6667       223.17
  63.03	      25934.6667       339.63
  64.03	      26530.6667       400.55
  65.03	      25971.6667       258.72
  66.03	      26133.6667       165.58
  67.03	           26399       140.23
  68.01	      26596.6667       534.65
  69.03	           26200           13
  70.03	      26414.6667       208.71
  71.03	           26173       69.282
  72.03	      26039.6667       152.99
  73.03	      25986.3333       26.723
  74.03	      26014.3333       439.65
  75.01	      26731.6667        424.2
  76.03	           26202       429.02
  77.03	           26308       113.53
  78.03	      26278.3333       47.614
  79.03	           26213       220.25
  80.03	           25943       314.32
  81.03	      26656.3333       230.65
  82.01	      25785.6667        352.7
  83.01	           26866       490.32
  84.03	      26386.6667       247.15
  85.03	           25679       555.01
  86.03	      26347.3333       169.68
  87.03	           26574       341.67
  88.03	           26586       291.36
  89.03	      26280.6667       81.858
  90.01	           25971       188.26
  91.03	           26480       453.27
  92.03	      26681.3333       375.41
  93.03	      26187.3333       116.58
  94.03	           26279       279.49
  95.03	      26572.3333       323.65
  96.03	           26305       133.01
  97.01	      26824.6667       231.09
  98.03	           26080       521.16
  99.03	           26067       502.56
 100.03	           25560       353.78
 101.03	      26438.6667       302.31
 102.03	      26200.6667        147.4
 103.03	      26199.6667       517.69
 104.01	      26253.6667       649.57
 105.03	      26547.6667       311.86
 106.03	      26106.6667       628.29
 107.03	           26574       454.53
 108.03	      25932.3333       341.96
 109.03	      26131.3333       280.67
 110.03	           26561       233.74
 111.01	           25878       548.85
 112.03	      26479.3333       338.76
 113.03	           26598       475.91
 114.03	           25946       470.69
 115.03	           25880       489.23
 116.03	           26107       292.86
 117.03	           25786       406.15
 118.01	      26904.6667        196.3
 119.01	      26812.6667       381.44
 120.03	      26798.6667        408.5
 121.03	           26759          128
 122.03	           26095       175.16
 123.03	      26586.6667        281.9
 124.03	           26560       333.14
 125.03	      26532.6667       60.993
 126.01	      27319.6667       373.01
 127.03	           26159       508.65
 128.03	      27173.3333       79.342
 129.03	      26027.6667       321.71
 130.03	           26813       61.101
 131.03	           26386       419.22
 132.03	           26146       86.933
 133.01	      26013.6667       449.25
 134.03	      26680.6667       473.31
 135.03	      26547.3333       319.49
 136.03	      26012.6667       340.25
 137.03	           26666       393.36
 138.03	      26428.3333       243.14
 139.03	      26506.3333       134.33
 140.01	           26266       170.24
 141.03	      26171.6667       324.59
 142.03	      27013.6667       234.52
 143.03	           26119       647.08
 144.03	           26560       518.83
 145.03	      26119.3333       185.76
 146.03	           26705       402.57
 147.01	      27092.6667       144.41
 148.03	           26731       272.84
 149.03	      26759.6667       151.15
 150.03	      26506.3333        80.13
 151.03	           26118       378.29
 152.03	           26839       326.17
 153.03	           25787        416.5
 154.01	           26559       172.46
 155.01	      26225.3333       430.35
 156.03	      26279.3333       184.93
 157.03	           26839       70.501
 158.03	      26360.6667       163.48
 159.03	      26131.3333       383.58
 160.03	      26466.6667       175.51
 161.03	           26759       139.66
 162.01	      25812.6667       272.35
 163.03	      25920.3333       437.95
 164.03	      26238.3333       426.09
 165.03	      26602.6667       230.62
 166.03	           26747       136.28
 167.03	           26520       96.106
 168.03	      26241.3333       214.91
 169.01	      26783.6667       353.33
 170.03	           26358        153.1
 171.03	      26410.3333       264.83
 172.03	      26066.6667       403.95
 173.03	           26106       72.002
 174.03	           26320       359.16
 175.03	      26532.6667       122.32
 176.01	      26706.6667       212.83
 177.03	      26013.3333        355.6
 178.03	      26746.3333       53.834
 179.03	      26772.6667        363.3
 180.03	      26092.6667       324.98
 181.14	      26172.3333       421.71
 182.01	      25998.3333       114.86
 183.01	      26319.3333       58.925
 184.03	           26117       497.31
 185.03	           26280       289.32
 186.03	      25706.3333       133.67
 187.03	           25226       241.49
 188.03	      25746.6667       36.097
 189.03	      26293.3333       197.25
 190.01	           26278       188.22
 191.01	           25934       334.29
 192.03	      26199.3333       289.42
 193.03	           26387       381.51
 194.03	      26226.3333       555.79
 195.03	      26704.3333       221.81
 196.03	      25892.6667       583.58
 197.03	           26384       14.903
 198.01	      25758.6667        569.7
 199.03	      26081.6667       601.32
 200.03	           26147        219.5
 201.03	      26452.6667       358.83
 202.03	      26720.6667       172.19
 203.03	           26280       319.82
 204.03	      26798.6667       397.32
 205.01	      26331.3333       128.84
 206.03	      25985.6667       520.79
 207.03	      25691.6667       280.77
 208.03	      26198.6667       340.01
 209.03	      26692.3333       220.82
 210.03	      26091.6667       426.29
 211.03	      26093.3333       445.33
 212.01	      26641.3333       186.13
 213.03	      26185.3333       447.34
 214.03	      26132.3333       483.42
 215.03	      26118.3333       333.13
 216.03	      26680.3333       256.68
 217.03	      26678.3333       96.148
 218.03	      26119.6667       188.07
 219.01	      26266.3333       152.58
 220.03	           26251       469.01
 221.03	      26174.6667        142.7
 222.03	           26318       359.88
