Title=Alexa650-Kinetics
Comment=
Signature=ISS_Experiment_Ver_1_0
Timestamp=Thu May 19 13:36:41 2022

AcquisitionType=Photon Counting
AcquisitionFormat=L
AcquisitionSide=Right

Measurable=Intensity
MaxIterations=3

RightEmissionWavelengthBandwidth=8
ExcitationWavelengthBandwidth=8
Visualization=PlotType:2D,X:Time,Y:Intensity


Time=type:numeric,unit:s,from:0.0,to:300.0,step:1.0
ExcitationWavelength=type:numeric,unit:nm,fixed:650.0
EmissionWavelength=type:numeric,unit:nm,fixed:668.0

Space=Time
Columns=Time,Intensity,IntensityStdError
[Data]
   0.00	      20770.6667       334.03
   1.01	      21265.6667       409.79
   2.01	      21440.3333       265.81
   3.01	      21198.3333       521.88
   4.03	      20960.6667       381.56
   5.03	           21013       234.28
   6.03	      20600.3333       221.91
   7.03	      20772.6667       324.35
   8.03	      21158.6667       123.51
   9.03	      20960.6667       364.55
  10.01	           20413       128.16
  11.03	      20598.6667       105.89
  12.03	      20838.3333       60.559
  13.03	      21295.6667       117.94
  14.03	      20932.6667       283.22
  15.03	      20745.6667       109.69
  16.03	      20865.6667       193.16
  17.01	      20410.6667        187.3
  18.03	           20998       266.66
  19.03	           20585       139.08
  20.03	      20386.3333       93.171
  21.03	      20545.3333       327.05
  22.03	      20826.3333       13.321
  23.03	      20785.6667       277.81
  24.01	      20719.6667       299.58
  25.03	      21023.6667       531.57
  26.03	      20985.6667       176.85
  27.03	           21624       161.28
  28.03	           20332       309.47
  29.03	           20546       567.08
  30.03	           20520       242.74
  31.03	      20479.3333       355.27
  32.01	      20757.6667       82.319
  33.03	           21066        192.2
  34.03	      20785.3333       346.83
  35.03	      20960.6667       182.87
  36.03	      21160.6667       167.58
  37.03	      21386.6667       168.03
  38.03	      21226.3333       200.47
  39.01	      21560.6667       299.89
  40.03	           21439       100.66
  41.03	      20890.6667       149.71
  42.03	           21678       300.22
  43.03	      21505.3333       410.41
  44.03	      20720.3333       514.48
  45.03	      21079.3333       399.97
  46.01	      20946.6667       306.97
  47.03	      21066.6667       131.72
  48.03	      21570.6667       467.19
  49.03	           20985       173.54
  50.03	           21598       201.46
  51.03	      20612.6667       453.18
  52.03	      21252.6667       169.35
  53.01	           21333       154.09
  54.03	           21198       362.22
  55.03	      21173.3333       278.65
  56.03	      21279.3333        123.4
  57.03	      21772.6667       231.06
  58.03	           21733       87.922
  59.03	      21157.3333       491.47
  60.01	      20667.6667        257.2
  61.03	           21266       642.03
  62.03	           21226       469.28
  63.03	      20373.6667       210.65
  64.03	           20627       235.28
  65.03	      20745.3333       126.65
  66.03	      20465.3333       582.06
  67.03	           20584       255.15
  68.01	      20504.3333       291.21
  69.03	      20024.6667       104.46
  70.03	      20626.6667       448.01
  71.03	      20611.6667       347.18
  72.03	           20598       385.26
  73.03	           20934        256.1
  74.03	      20359.3333       280.83
  75.01	      20745.6667       364.85
  76.03	           20933       259.32
  77.03	           20535       375.49
  78.03	           20612        385.1
  79.03	           20838       327.66
  80.03	      20505.3333       514.33
  81.03	           20360       288.58
  82.01	           20666        235.2
  83.03	           20373       353.19
  84.03	      20944.3333       66.333
  85.03	           20920       257.43
  86.03	      20678.3333       230.36
  87.03	      20146.6667       387.67
  88.03	           20533       313.28
  89.01	      20961.3333       462.67
  90.03	      20239.3333       198.03
  91.03	           20826       35.907
  92.03	      20876.6667       381.02
  93.03	           21012       265.07
  94.03	      20879.6667       178.75
  95.03	      20892.3333       12.837
  96.01	           20519       234.36
  97.03	           20904       279.35
  98.03	      21386.6667       346.61
  99.03	      20639.3333       82.159
 100.03	      20759.6667       393.18
 101.03	      20572.6667       466.98
 102.03	      20718.3333       101.46
 103.03	      20402.3333       139.76
 104.01	      20945.3333       166.18
 105.03	           20387       457.53
 106.03	      20879.3333       69.302
 107.03	      20545.3333       329.63
 108.03	      20786.3333       648.96
 109.03	      20440.3333       198.84
 110.03	      20212.6667       367.55
 111.01	      20705.6667       453.92
 112.03	      20198.6667        167.1
 113.03	      20517.6667       162.52
 114.03	           19919       347.79
 115.03	      20371.3333       448.05
 116.03	      20197.3333        346.7
 117.03	      20878.3333       140.91
 118.01	      20357.6667       138.57
 119.03	      20492.3333       557.44
 120.03	           20665       269.54
 121.03	           20398       301.95
 122.03	           20451       214.07
 123.03	           20745       163.94
 124.03	      20851.6667       241.72
 125.01	           20746       199.96
 126.03	           20493        372.5
 127.03	      20264.3333       274.93
 128.03	      20412.6667       59.476
 129.03	      20518.6667       313.58
 130.03	           20506        108.5
 131.03	      20265.6667       157.75
 132.01	      20198.6667       106.27
 133.03	      20239.6667       302.26
 134.03	           20665       291.34
 135.03	           20626       241.43
 136.03	      20840.3333       259.44
 137.03	      20371.3333       233.11
 138.03	      20359.3333       422.44
 139.03	      20370.6667       264.83
 140.01	      20797.3333       422.63
 141.03	      20558.3333        383.7
 142.03	           20452       80.556
 143.03	      20186.6667       149.37
 144.03	      19985.3333       274.62
 145.03	      19929.6667       442.99
 146.03	      20131.3333       509.34
 147.01	      20334.3333       385.17
 148.03	      20281.6667       211.16
 149.03	           20157       294.46
 150.03	      20495.3333       413.56
 151.03	      20890.3333       132.84
 152.03	           20639       122.86
 153.03	           20238       419.86
