Title=Alexa650-Kinetics
Comment=
Signature=ISS_Experiment_Ver_1_0
Timestamp=Thu May 19 12:57:17 2022

AcquisitionType=Photon Counting
AcquisitionFormat=L
AcquisitionSide=Right

Measurable=Intensity
MaxIterations=3

RightEmissionWavelengthBandwidth=8
ExcitationWavelengthBandwidth=8
Visualization=PlotType:2D,X:Time,Y:Intensity


Time=type:numeric,unit:s,from:0.0,to:300.0,step:1.0
ExcitationWavelength=type:numeric,unit:nm,fixed:650.0
EmissionWavelength=type:numeric,unit:nm,fixed:668.0

Space=Time
Columns=Time,Intensity,IntensityStdError
[Data]
   0.00	      77160.6667        427.1
   1.03	           77654       214.57
   2.03	      78121.3333       278.28
   3.03	      76534.6667       368.35
   4.03	      77201.6667       737.85
   5.03	           78014       721.44
   6.03	      77213.6667       613.83
   7.03	           78335       663.77
   8.01	      78509.3333       764.29
   9.03	      77014.6667       686.12
  10.03	           76454       486.42
  11.03	      77560.3333       808.21
  12.03	      77160.3333       362.27
  13.03	      77562.6667       205.11
  14.03	      77933.6667       534.83
  15.01	      77281.6667       100.27
  16.03	      77534.3333       730.83
  17.03	      77854.6667       374.53
  18.03	      77321.3333       697.08
  19.03	      77507.6667       396.44
  20.03	           77948       381.43
  21.03	      78825.3333       484.83
  22.01	      76334.3333       931.46
  23.03	      78426.3333       681.01
  24.03	      77771.3333       327.06
  25.03	      38495.6667       1922.4
  26.03	           57788       462.88
  27.03	      60452.3333       456.94
  28.03	           62815       825.16
  29.03	      62120.3333       185.04
  30.01	      59815.6667        475.6
  31.03	      55388.6667       496.23
  32.03	      54546.6667       532.51
  33.03	      53721.3333       681.57
  34.03	      51853.6667       327.52
  35.03	      51484.3333       116.91
  36.03	      51082.6667       876.84
  37.01	      49187.3333       487.23
  38.03	      48120.3333       674.49
  39.03	           48308       254.12
  40.03	           47470       233.59
  41.03	      47735.3333        533.9
  42.03	      46612.6667       243.16
  43.03	           45975       241.25
  44.01	           45561       212.17
  45.03	      46455.3333        86.85
  46.03	      45893.6667       253.47
  47.03	           45134       288.49
  48.03	           44601       279.83
  49.03	           44401       588.37
  50.03	      43923.6667       241.33
  51.01	      44707.6667       283.44
  52.03	           44146       456.73
  53.03	      44563.3333       728.66
  54.03	           44442       356.82
  55.03	      43372.6667       656.76
  56.03	           43400       422.69
  57.03	           43440       538.47
  58.01	      42893.6667       1373.3
  59.03	      43213.3333       419.95
  60.03	           42548       187.56
  61.03	      42373.6667       690.16
  62.03	           43082       480.92
  63.03	      42159.6667       986.87
  64.03	      42615.3333       635.68
  65.03	      41522.6667       561.12
  66.01	      42760.3333       367.59
  67.03	      42401.3333       439.97
  68.03	      42613.3333       631.28
  69.03	      41414.6667       349.92
  70.03	      41482.3333       357.62
  71.03	      42108.6667       163.38
  72.03	      41200.6667       122.21
  73.01	      42334.6667       110.12
  74.03	           41535        198.4
  75.03	      41881.3333       47.057
  76.03	      41413.3333       149.43
  77.03	           41723          743
  78.03	           42332       187.76
  79.03	           41495       464.41
  80.01	      40855.6667       576.01
  81.03	      41735.6667       163.07
  82.03	      41014.3333       391.83
  83.03	           40723       568.72
  84.03	      41481.3333       485.35
  85.03	      41159.3333        476.6
  86.03	           40602        472.6
  87.01	      40763.3333       698.62
  88.03	      39907.3333       341.99
  89.03	      41148.3333       609.83
  90.03	           40041       865.67
  91.03	      40709.6667       528.16
  92.03	      40893.6667       454.33
  93.03	      40454.6667       173.91
  94.01	      32602.3333       2111.9
  95.03	      30308.6667       141.04
  96.03	      28305.6667       279.19
  97.03	           29307       107.17
  98.03	      28373.6667       450.68
  99.03	      27867.3333       103.91
 100.03	      27630.3333       313.75
 101.03	      26880.6667       291.39
 102.01	      26828.6667       80.683
 103.03	      25628.3333        369.9
 104.03	           25215       398.75
 105.03	      23989.3333       397.22
 106.03	      23909.6667       373.83
 107.03	           23415       514.94
 108.03	      22440.3333       140.95
 109.01	      21589.6667       127.86
 110.03	      20867.3333        420.2
 111.03	      20613.6667       58.692
 112.03	      20107.3333          157
 113.03	      19212.6667       210.09
 114.03	           19655       312.43
 115.03	      18414.6667       169.68
 116.01	      18000.6667        140.3
 117.03	      17574.6667       579.74
 118.03	      16706.6667       74.479
 119.03	           16854        56.36
 120.03	      16387.3333       81.799
 121.03	      15733.6667       276.05
 122.03	           15335       366.54
 123.01	      15483.3333       23.388
 124.03	      14640.6667        198.5
 125.03	           14483       439.83
 126.03	      13933.6667       12.333
 127.03	      13308.6667       291.09
 128.03	           12776       354.89
 129.03	      12881.3333       256.59
 130.01	      12056.3333       266.83
 131.03	      11668.3333       47.318
 132.03	           11559       161.08
 133.03	      11122.6667       234.24
 134.03	      11052.6667       163.11
 135.03	      10962.3333       100.27
 136.03	      10482.6667       83.587
 137.03	      10454.6667        57.67
 138.01	      9894.66667       255.67
 139.03	            9749       132.33
 140.03	            9401       140.67
 141.03	      9375.33333       158.11
 142.03	      8695.33333       134.89
 143.03	      8709.33333       307.39
 144.03	      8376.33333       173.58
 145.01	      8244.33333        119.5
 146.03	      8614.33333       147.37
 147.03	      7682.33333        262.3
 148.03	      7828.66667       48.861
 149.03	      7508.66667       104.44
 150.03	      7121.66667       128.89
 151.03	      7293.66667       231.01
 152.01	            7109       188.69
 153.03	      6641.66667       219.64
 154.03	      7014.33333       114.53
 155.03	      6508.33333       33.451
 156.03	      6681.66667       227.89
 157.03	      6280.66667       145.01
 158.03	      6213.33333       288.02
 159.01	      6241.33333       223.97
 160.03	      5709.66667       73.578
 161.03	            5522       41.337
 162.03	            5414       210.02
 163.03	      5002.33333       99.485
 164.03	            5134       93.382
 165.03	      5225.33333       196.63
 166.01	      5013.66667       66.172
 167.03	      4920.66667       128.89
 168.03	      5014.66667       96.288
 169.03	            4746       181.17
 170.03	            4443       240.72
 171.03	      4254.66667        187.6
 172.03	      4213.66667       110.24
 173.03	            4201       83.275
 174.01	      4025.66667       152.54
 175.03	      3921.66667        61.65
 176.03	            3935        58.55
 177.03	            3854       195.55
 178.03	      3774.33333       157.85
 179.03	      3678.33333       234.01
 180.03	            3145       21.365
 181.08	            3200       46.934
 182.01	            2866       189.35
 183.01	      3040.66667       150.22
 184.01	      3120.66667       58.242
 185.01	      2919.66667       104.14
 186.01	            2881       127.17
 187.01	            2947       82.946
 188.01	      2785.66667       79.669
 189.03	      2545.66667       141.05
 190.03	            2600       176.26
 191.03	      2904.66667       166.54
 192.03	      2493.33333         93.5
 193.03	      2521.33333       116.09
 194.03	      2639.66667       232.22
 195.01	      2318.33333       58.227
 196.03	            2213       95.733
 197.03	      2307.33333       39.526
 198.03	      2090.33333       47.035
 199.03	      2041.66667       91.834
 200.03	      1959.33333       164.51
 201.03	            2000        53.67
 202.01	            2199       134.47
 203.03	            1813       73.698
 204.03	            1854       176.31
 205.03	            1933       14.438
 206.03	      1839.66667       73.342
 207.03	      1961.66667       105.29
 208.03	            1559       148.14
 209.03	            1746       227.68
 210.01	            1544       82.228
 211.03	      1718.33333        56.93
 212.03	            1613       199.92
 213.03	            1628       40.337
 214.03	      1571.66667       167.34
 215.03	      1625.33333       71.021
 216.03	      1546.66667       145.15
 217.01	      1692.33333       153.91
 218.03	      1477.33333       92.289
 219.03	      1414.33333       162.43
 220.03	            1414       168.82
 221.03	      1423.66667       39.834
 222.03	            1454       91.335
 223.03	            1384        82.79
 224.01	      1424.33333       184.39
 225.03	      1186.33333        61.76
 226.03	      1480.33333       53.507
 227.03	      1186.66667       150.96
 228.03	            1253       95.733
 229.03	            1292       221.91
 230.03	            1106       60.559
 231.01	      1147.66667       93.242
 232.03	             839       47.893
 233.03	      1067.33333       40.583
 234.03	      1226.66667       201.07
 235.03	             905       46.784
 236.03	      1039.33333       112.59
 237.03	      946.333333        61.76
 238.01	            1147       121.33
 239.03	      935.333333       47.085
 240.03	            1053       81.352
 241.03	      1052.66667       118.83
 242.03	             974       94.263
 243.03	      932.333333       114.64
 244.03	      1014.33333       167.88
 245.03	      865.666667       98.746
 246.01	      692.333333        87.23
 247.03	             772       187.17
 248.03	      800.666667       118.29
 249.03	             720       58.225
 250.03	      958.333333       127.63
 251.03	      878.666667       186.03
 252.03	      706.333333       82.706
 253.01	             574       71.699
 254.03	             933       76.128
 255.03	             667       46.193
 256.03	             855       88.501
 257.03	      837.666667       96.565
 258.03	             746       189.53
 259.03	      598.666667       35.101
 260.01	      560.666667       93.481
 261.03	      677.666667        157.2
 262.03	      667.333333       22.811
 263.03	      665.666667       40.834
 264.03	      571.333333       108.06
 265.03	      560.666667       92.977
 266.03	      825.333333       121.77
 267.01	      400.666667       57.545
 268.03	             588       45.907
 269.03	             534       116.81
 270.03	      613.666667       92.668
 271.03	      544.666667        99.34
 272.03	             547       104.82
 273.03	      598.333333       128.63
 274.01	             518       70.998
 275.03	      640.666667       92.191
 276.03	             601        34.28
 277.03	             335       74.329
 278.03	      534.333333       160.63
 279.03	      411.666667          119
 280.03	             346       106.15
 281.03	      559.333333       112.59
 282.01	             587       100.86
 283.03	             641        48.45
 284.03	             388       181.18
 285.03	      428.666667       45.322
 286.03	      520.666667       149.99
 287.03	      362.666667       70.744
 288.03	             427       68.128
 289.01	      371.333333       48.398
 290.03	             386       1.3333
 291.03	      317.666667       70.177
 292.03	      239.333333        156.2
 293.03	      319.333333       70.117
 294.03	      321.666667       73.612
 295.03	      373.333333       73.014
 296.01	      251.333333       88.097
 297.03	             319       35.409
 298.03	             400       70.998
 299.03	             357        14.17
 300.03	      68.3333333       45.902
