Title=A555
Comment=
Signature=ISS_Experiment_Ver_1_0
Timestamp=Thu May 19 14:50:12 2022

AcquisitionType=Photon Counting
AcquisitionFormat=L
AcquisitionSide=Right

Measurable=Intensity
MaxIterations=3

RightEmissionWavelengthBandwidth=8
ExcitationWavelengthBandwidth=8
Visualization=PlotType:2D,X:EmissionWavelength,Y:Intensity


Iteration=type:index,unit:none,count:3
EmissionWavelength=type:numeric,unit:nm,from:760.0,to:800.0,step:1.0
ExcitationWavelength=type:numeric,unit:nm,fixed:754.0

Space=Iteration,EmissionWavelength
Columns=Iteration,EmissionWavelength,Intensity,IntensityStdError
[Data]
1  	760    	      11241.3333       134.22
1  	761    	      11628.6667       153.15
1  	762    	           12376       140.48
1  	763    	      13388.3333       166.59
1  	764    	           13908        97.35
1  	765    	      14534.3333       82.394
1  	766    	           15148       459.34
1  	767    	      14933.6667       82.548
1  	768    	      15894.3333       319.33
1  	769    	           16668       200.89
1  	770    	           17244       113.43
1  	771    	      17924.6667       232.19
1  	772    	           18282       267.53
1  	773    	           18308       108.19
1  	774    	      18441.3333       243.67
1  	775    	           18986       341.95
1  	776    	           19363        332.4
1  	777    	      19322.6667        338.1
1  	778    	      19163.3333       245.03
1  	779    	      19415.3333       416.63
1  	780    	      20535.3333       460.88
1  	781    	      19838.3333       176.27
1  	782    	           19707       247.81
1  	783    	           19869        87.23
1  	784    	      19363.3333        248.3
1  	785    	           19389       162.84
1  	786    	           19229       787.36
1  	787    	      18389.3333       174.33
1  	788    	           18549       138.68
1  	789    	           18253       139.58
1  	790    	      17508.3333       340.89
1  	791    	      17415.6667       289.58
1  	792    	      16734.6667       160.67
1  	793    	      16521.3333       323.36
1  	794    	      16081.6667       209.27
1  	795    	      15213.3333       161.78
1  	796    	      14948.3333       223.35
1  	797    	      14015.6667       61.866
1  	798    	      13230.3333       249.17
1  	799    	      13575.3333       160.85
1  	800    	           12123       269.51
2  	760    	      12359.6667       384.25
2  	761    	      12682.3333       334.81
2  	762    	           13228       174.08
2  	763    	           14163       174.39
2  	764    	      14628.3333       218.28
2  	765    	      14946.6667        291.8
2  	766    	      15506.6667       242.57
2  	767    	      15319.3333       117.31
2  	768    	      16148.6667       407.37
2  	769    	      16466.6667       257.33
2  	770    	           16789       232.18
2  	771    	      17400.6667       25.693
2  	772    	           17989       223.96
2  	773    	      18271.6667       407.01
2  	774    	      19123.6667       274.14
2  	775    	      19175.6667       242.55
2  	776    	      19094.3333       439.97
2  	777    	      18935.3333       174.62
2  	778    	      19389.6667       49.418
2  	779    	      19881.3333        308.2
2  	780    	      19319.3333        222.1
2  	781    	      20146.6667       140.29
2  	782    	      19989.6667       238.39
2  	783    	      19709.3333        87.14
2  	784    	           19617       128.38
2  	785    	      19641.6667       92.834
2  	786    	      19149.3333       116.24
2  	787    	      19001.6667       274.04
2  	788    	           18455       381.52
2  	789    	      17705.6667       385.13
2  	790    	      17202.3333       335.94
2  	791    	      17268.6667       134.92
2  	792    	      16799.3333       381.05
2  	793    	           16388        410.3
2  	794    	      15522.3333       458.72
2  	795    	      15134.6667       143.76
2  	796    	      15054.3333       223.91
2  	797    	           13936       454.75
2  	798    	           13256       263.21
2  	799    	      13426.3333       162.67
2  	800    	           12868       300.24
3  	760    	      12241.6667       375.84
3  	761    	      12710.6667       281.34
3  	762    	      13377.6667       128.12
3  	763    	      14361.3333       48.306
3  	764    	      14255.6667       44.745
3  	765    	      14801.6667       334.05
3  	766    	           15629       323.12
3  	767    	      16134.6667       317.99
3  	768    	           16311        324.2
3  	769    	      16655.3333       83.027
3  	770    	           16843       277.39
3  	771    	           17481       367.75
3  	772    	      17718.6667       277.09
3  	773    	      18068.6667       189.43
3  	774    	           19030       215.31
3  	775    	           18735       233.44
3  	776    	      19800.3333       291.32
3  	777    	      19627.6667       614.19
3  	778    	           18935       127.24
3  	779    	      19627.6667        26.34
3  	780    	      19894.6667       482.65
3  	781    	      19362.3333       171.59
3  	782    	      19309.3333       139.54
3  	783    	           19281       152.96
3  	784    	      19079.3333        323.3
3  	785    	           19709       315.04
3  	786    	           18613       532.42
3  	787    	           18510       368.69
3  	788    	           18444       331.07
3  	789    	      17894.3333       579.59
3  	790    	           17897       143.39
3  	791    	      17362.6667       193.64
3  	792    	           17188       231.83
3  	793    	      16414.6667       323.19
3  	794    	      16069.6667       35.592
3  	795    	           14978        280.5
3  	796    	      14829.3333       131.47
3  	797    	           14016       394.36
3  	798    	      13681.6667       149.74
3  	799    	           12911       220.33
3  	800    	      12775.6667       143.21
